Frequency  Raman intensity
  350.000  1.3130e+01
  351.000  1.3158e+01
  352.000  1.3185e+01
  353.000  1.3213e+01
  354.000  1.3241e+01
  355.000  1.3268e+01
  356.000  1.3296e+01
  357.000  1.3324e+01
  358.000  1.3352e+01
  359.000  1.3381e+01
  360.000  1.3409e+01
  361.000  1.3437e+01
  362.000  1.3466e+01
  363.000  1.3494e+01
  364.000  1.3523e+01
  365.000  1.3552e+01
  366.000  1.3580e+01
  367.000  1.3609e+01
  368.000  1.3638e+01
  369.000  1.3667e+01
  370.000  1.3697e+01
  371.000  1.3726e+01
  372.000  1.3755e+01
  373.000  1.3785e+01
  374.000  1.3814e+01
  375.000  1.3844e+01
  376.000  1.3874e+01
  377.000  1.3903e+01
  378.000  1.3933e+01
  379.000  1.3963e+01
  380.000  1.3994e+01
  381.000  1.4024e+01
  382.000  1.4054e+01
  383.000  1.4085e+01
  384.000  1.4115e+01
  385.000  1.4146e+01
  386.000  1.4176e+01
  387.000  1.4207e+01
  388.000  1.4238e+01
  389.000  1.4269e+01
  390.000  1.4300e+01
  391.000  1.4332e+01
  392.000  1.4363e+01
  393.000  1.4394e+01
  394.000  1.4426e+01
  395.000  1.4458e+01
  396.000  1.4489e+01
  397.000  1.4521e+01
  398.000  1.4553e+01
  399.000  1.4585e+01
  400.000  1.4617e+01
  401.000  1.4650e+01
  402.000  1.4682e+01
  403.000  1.4715e+01
  404.000  1.4747e+01
  405.000  1.4780e+01
  406.000  1.4813e+01
  407.000  1.4846e+01
  408.000  1.4879e+01
  409.000  1.4912e+01
  410.000  1.4945e+01
  411.000  1.4979e+01
  412.000  1.5012e+01
  413.000  1.5046e+01
  414.000  1.5079e+01
  415.000  1.5113e+01
  416.000  1.5147e+01
  417.000  1.5181e+01
  418.000  1.5215e+01
  419.000  1.5250e+01
  420.000  1.5284e+01
  421.000  1.5319e+01
  422.000  1.5353e+01
  423.000  1.5388e+01
  424.000  1.5423e+01
  425.000  1.5458e+01
  426.000  1.5493e+01
  427.000  1.5528e+01
  428.000  1.5563e+01
  429.000  1.5599e+01
  430.000  1.5634e+01
  431.000  1.5670e+01
  432.000  1.5706e+01
  433.000  1.5742e+01
  434.000  1.5778e+01
  435.000  1.5814e+01
  436.000  1.5851e+01
  437.000  1.5887e+01
  438.000  1.5924e+01
  439.000  1.5960e+01
  440.000  1.5997e+01
  441.000  1.6034e+01
  442.000  1.6071e+01
  443.000  1.6108e+01
  444.000  1.6146e+01
  445.000  1.6183e+01
  446.000  1.6221e+01
  447.000  1.6259e+01
  448.000  1.6297e+01
  449.000  1.6335e+01
  450.000  1.6373e+01
  451.000  1.6411e+01
  452.000  1.6449e+01
  453.000  1.6488e+01
  454.000  1.6527e+01
  455.000  1.6565e+01
  456.000  1.6604e+01
  457.000  1.6643e+01
  458.000  1.6683e+01
  459.000  1.6722e+01
  460.000  1.6761e+01
  461.000  1.6801e+01
  462.000  1.6841e+01
  463.000  1.6881e+01
  464.000  1.6921e+01
  465.000  1.6961e+01
  466.000  1.7001e+01
  467.000  1.7042e+01
  468.000  1.7083e+01
  469.000  1.7123e+01
  470.000  1.7164e+01
  471.000  1.7205e+01
  472.000  1.7247e+01
  473.000  1.7288e+01
  474.000  1.7330e+01
  475.000  1.7371e+01
  476.000  1.7413e+01
  477.000  1.7455e+01
  478.000  1.7497e+01
  479.000  1.7539e+01
  480.000  1.7582e+01
  481.000  1.7624e+01
  482.000  1.7667e+01
  483.000  1.7710e+01
  484.000  1.7753e+01
  485.000  1.7796e+01
  486.000  1.7840e+01
  487.000  1.7883e+01
  488.000  1.7927e+01
  489.000  1.7971e+01
  490.000  1.8015e+01
  491.000  1.8059e+01
  492.000  1.8103e+01
  493.000  1.8148e+01
  494.000  1.8193e+01
  495.000  1.8237e+01
  496.000  1.8282e+01
  497.000  1.8328e+01
  498.000  1.8373e+01
  499.000  1.8418e+01
  500.000  1.8464e+01
  501.000  1.8510e+01
  502.000  1.8556e+01
  503.000  1.8602e+01
  504.000  1.8648e+01
  505.000  1.8695e+01
  506.000  1.8742e+01
  507.000  1.8788e+01
  508.000  1.8836e+01
  509.000  1.8883e+01
  510.000  1.8930e+01
  511.000  1.8978e+01
  512.000  1.9026e+01
  513.000  1.9073e+01
  514.000  1.9122e+01
  515.000  1.9170e+01
  516.000  1.9218e+01
  517.000  1.9267e+01
  518.000  1.9316e+01
  519.000  1.9365e+01
  520.000  1.9414e+01
  521.000  1.9464e+01
  522.000  1.9513e+01
  523.000  1.9563e+01
  524.000  1.9613e+01
  525.000  1.9663e+01
  526.000  1.9714e+01
  527.000  1.9764e+01
  528.000  1.9815e+01
  529.000  1.9866e+01
  530.000  1.9917e+01
  531.000  1.9968e+01
  532.000  2.0020e+01
  533.000  2.0072e+01
  534.000  2.0124e+01
  535.000  2.0176e+01
  536.000  2.0228e+01
  537.000  2.0281e+01
  538.000  2.0334e+01
  539.000  2.0387e+01
  540.000  2.0440e+01
  541.000  2.0493e+01
  542.000  2.0547e+01
  543.000  2.0601e+01
  544.000  2.0655e+01
  545.000  2.0709e+01
  546.000  2.0763e+01
  547.000  2.0818e+01
  548.000  2.0873e+01
  549.000  2.0928e+01
  550.000  2.0983e+01
  551.000  2.1039e+01
  552.000  2.1095e+01
  553.000  2.1151e+01
  554.000  2.1207e+01
  555.000  2.1263e+01
  556.000  2.1320e+01
  557.000  2.1377e+01
  558.000  2.1434e+01
  559.000  2.1491e+01
  560.000  2.1549e+01
  561.000  2.1607e+01
  562.000  2.1665e+01
  563.000  2.1723e+01
  564.000  2.1781e+01
  565.000  2.1840e+01
  566.000  2.1899e+01
  567.000  2.1958e+01
  568.000  2.2018e+01
  569.000  2.2077e+01
  570.000  2.2137e+01
  571.000  2.2198e+01
  572.000  2.2258e+01
  573.000  2.2319e+01
  574.000  2.2380e+01
  575.000  2.2441e+01
  576.000  2.2502e+01
  577.000  2.2564e+01
  578.000  2.2626e+01
  579.000  2.2688e+01
  580.000  2.2750e+01
  581.000  2.2813e+01
  582.000  2.2876e+01
  583.000  2.2939e+01
  584.000  2.3003e+01
  585.000  2.3067e+01
  586.000  2.3131e+01
  587.000  2.3195e+01
  588.000  2.3259e+01
  589.000  2.3324e+01
  590.000  2.3389e+01
  591.000  2.3455e+01
  592.000  2.3520e+01
  593.000  2.3586e+01
  594.000  2.3652e+01
  595.000  2.3719e+01
  596.000  2.3786e+01
  597.000  2.3853e+01
  598.000  2.3920e+01
  599.000  2.3988e+01
  600.000  2.4056e+01
  601.000  2.4124e+01
  602.000  2.4192e+01
  603.000  2.4261e+01
  604.000  2.4330e+01
  605.000  2.4399e+01
  606.000  2.4469e+01
  607.000  2.4539e+01
  608.000  2.4609e+01
  609.000  2.4680e+01
  610.000  2.4751e+01
  611.000  2.4822e+01
  612.000  2.4893e+01
  613.000  2.4965e+01
  614.000  2.5037e+01
  615.000  2.5109e+01
  616.000  2.5182e+01
  617.000  2.5255e+01
  618.000  2.5329e+01
  619.000  2.5402e+01
  620.000  2.5476e+01
  621.000  2.5551e+01
  622.000  2.5625e+01
  623.000  2.5700e+01
  624.000  2.5775e+01
  625.000  2.5851e+01
  626.000  2.5927e+01
  627.000  2.6003e+01
  628.000  2.6080e+01
  629.000  2.6157e+01
  630.000  2.6234e+01
  631.000  2.6312e+01
  632.000  2.6390e+01
  633.000  2.6468e+01
  634.000  2.6547e+01
  635.000  2.6626e+01
  636.000  2.6705e+01
  637.000  2.6785e+01
  638.000  2.6865e+01
  639.000  2.6946e+01
  640.000  2.7027e+01
  641.000  2.7108e+01
  642.000  2.7189e+01
  643.000  2.7271e+01
  644.000  2.7354e+01
  645.000  2.7436e+01
  646.000  2.7519e+01
  647.000  2.7603e+01
  648.000  2.7687e+01
  649.000  2.7771e+01
  650.000  2.7855e+01
  651.000  2.7940e+01
  652.000  2.8026e+01
  653.000  2.8111e+01
  654.000  2.8198e+01
  655.000  2.8284e+01
  656.000  2.8371e+01
  657.000  2.8458e+01
  658.000  2.8546e+01
  659.000  2.8634e+01
  660.000  2.8723e+01
  661.000  2.8812e+01
  662.000  2.8901e+01
  663.000  2.8991e+01
  664.000  2.9081e+01
  665.000  2.9172e+01
  666.000  2.9263e+01
  667.000  2.9355e+01
  668.000  2.9446e+01
  669.000  2.9539e+01
  670.000  2.9632e+01
  671.000  2.9725e+01
  672.000  2.9818e+01
  673.000  2.9913e+01
  674.000  3.0007e+01
  675.000  3.0102e+01
  676.000  3.0198e+01
  677.000  3.0294e+01
  678.000  3.0390e+01
  679.000  3.0487e+01
  680.000  3.0584e+01
  681.000  3.0682e+01
  682.000  3.0780e+01
  683.000  3.0879e+01
  684.000  3.0978e+01
  685.000  3.1078e+01
  686.000  3.1178e+01
  687.000  3.1278e+01
  688.000  3.1380e+01
  689.000  3.1481e+01
  690.000  3.1583e+01
  691.000  3.1686e+01
  692.000  3.1789e+01
  693.000  3.1893e+01
  694.000  3.1997e+01
  695.000  3.2101e+01
  696.000  3.2206e+01
  697.000  3.2312e+01
  698.000  3.2418e+01
  699.000  3.2525e+01
  700.000  3.2632e+01
  701.000  3.2740e+01
  702.000  3.2848e+01
  703.000  3.2957e+01
  704.000  3.3066e+01
  705.000  3.3176e+01
  706.000  3.3287e+01
  707.000  3.3398e+01
  708.000  3.3509e+01
  709.000  3.3622e+01
  710.000  3.3734e+01
  711.000  3.3847e+01
  712.000  3.3961e+01
  713.000  3.4076e+01
  714.000  3.4191e+01
  715.000  3.4306e+01
  716.000  3.4422e+01
  717.000  3.4539e+01
  718.000  3.4657e+01
  719.000  3.4775e+01
  720.000  3.4893e+01
  721.000  3.5012e+01
  722.000  3.5132e+01
  723.000  3.5252e+01
  724.000  3.5373e+01
  725.000  3.5495e+01
  726.000  3.5617e+01
  727.000  3.5740e+01
  728.000  3.5864e+01
  729.000  3.5988e+01
  730.000  3.6113e+01
  731.000  3.6238e+01
  732.000  3.6364e+01
  733.000  3.6491e+01
  734.000  3.6618e+01
  735.000  3.6747e+01
  736.000  3.6875e+01
  737.000  3.7005e+01
  738.000  3.7135e+01
  739.000  3.7266e+01
  740.000  3.7397e+01
  741.000  3.7530e+01
  742.000  3.7662e+01
  743.000  3.7796e+01
  744.000  3.7930e+01
  745.000  3.8065e+01
  746.000  3.8201e+01
  747.000  3.8338e+01
  748.000  3.8475e+01
  749.000  3.8613e+01
  750.000  3.8752e+01
  751.000  3.8891e+01
  752.000  3.9031e+01
  753.000  3.9172e+01
  754.000  3.9314e+01
  755.000  3.9457e+01
  756.000  3.9600e+01
  757.000  3.9744e+01
  758.000  3.9889e+01
  759.000  4.0035e+01
  760.000  4.0181e+01
  761.000  4.0328e+01
  762.000  4.0476e+01
  763.000  4.0625e+01
  764.000  4.0775e+01
  765.000  4.0926e+01
  766.000  4.1077e+01
  767.000  4.1229e+01
  768.000  4.1382e+01
  769.000  4.1536e+01
  770.000  4.1691e+01
  771.000  4.1847e+01
  772.000  4.2003e+01
  773.000  4.2161e+01
  774.000  4.2319e+01
  775.000  4.2478e+01
  776.000  4.2638e+01
  777.000  4.2799e+01
  778.000  4.2961e+01
  779.000  4.3124e+01
  780.000  4.3288e+01
  781.000  4.3452e+01
  782.000  4.3618e+01
  783.000  4.3785e+01
  784.000  4.3952e+01
  785.000  4.4121e+01
  786.000  4.4290e+01
  787.000  4.4461e+01
  788.000  4.4632e+01
  789.000  4.4804e+01
  790.000  4.4978e+01
  791.000  4.5152e+01
  792.000  4.5328e+01
  793.000  4.5504e+01
  794.000  4.5682e+01
  795.000  4.5860e+01
  796.000  4.6040e+01
  797.000  4.6221e+01
  798.000  4.6402e+01
  799.000  4.6585e+01
  800.000  4.6769e+01
  801.000  4.6954e+01
  802.000  4.7140e+01
  803.000  4.7327e+01
  804.000  4.7515e+01
  805.000  4.7705e+01
  806.000  4.7895e+01
  807.000  4.8087e+01
  808.000  4.8280e+01
  809.000  4.8474e+01
  810.000  4.8669e+01
  811.000  4.8866e+01
  812.000  4.9063e+01
  813.000  4.9262e+01
  814.000  4.9462e+01
  815.000  4.9663e+01
  816.000  4.9865e+01
  817.000  5.0069e+01
  818.000  5.0274e+01
  819.000  5.0480e+01
  820.000  5.0688e+01
  821.000  5.0896e+01
  822.000  5.1106e+01
  823.000  5.1318e+01
  824.000  5.1530e+01
  825.000  5.1744e+01
  826.000  5.1959e+01
  827.000  5.2176e+01
  828.000  5.2394e+01
  829.000  5.2613e+01
  830.000  5.2834e+01
  831.000  5.3056e+01
  832.000  5.3280e+01
  833.000  5.3505e+01
  834.000  5.3731e+01
  835.000  5.3959e+01
  836.000  5.4188e+01
  837.000  5.4419e+01
  838.000  5.4651e+01
  839.000  5.4885e+01
  840.000  5.5120e+01
  841.000  5.5357e+01
  842.000  5.5595e+01
  843.000  5.5835e+01
  844.000  5.6076e+01
  845.000  5.6319e+01
  846.000  5.6564e+01
  847.000  5.6810e+01
  848.000  5.7057e+01
  849.000  5.7307e+01
  850.000  5.7558e+01
  851.000  5.7810e+01
  852.000  5.8064e+01
  853.000  5.8320e+01
  854.000  5.8578e+01
  855.000  5.8837e+01
  856.000  5.9098e+01
  857.000  5.9361e+01
  858.000  5.9626e+01
  859.000  5.9892e+01
  860.000  6.0160e+01
  861.000  6.0430e+01
  862.000  6.0702e+01
  863.000  6.0976e+01
  864.000  6.1251e+01
  865.000  6.1528e+01
  866.000  6.1808e+01
  867.000  6.2089e+01
  868.000  6.2372e+01
  869.000  6.2657e+01
  870.000  6.2944e+01
  871.000  6.3233e+01
  872.000  6.3524e+01
  873.000  6.3817e+01
  874.000  6.4111e+01
  875.000  6.4408e+01
  876.000  6.4708e+01
  877.000  6.5009e+01
  878.000  6.5312e+01
  879.000  6.5617e+01
  880.000  6.5925e+01
  881.000  6.6235e+01
  882.000  6.6546e+01
  883.000  6.6861e+01
  884.000  6.7177e+01
  885.000  6.7495e+01
  886.000  6.7816e+01
  887.000  6.8139e+01
  888.000  6.8465e+01
  889.000  6.8793e+01
  890.000  6.9123e+01
  891.000  6.9455e+01
  892.000  6.9790e+01
  893.000  7.0128e+01
  894.000  7.0467e+01
  895.000  7.0810e+01
  896.000  7.1155e+01
  897.000  7.1502e+01
  898.000  7.1852e+01
  899.000  7.2204e+01
  900.000  7.2559e+01
  901.000  7.2917e+01
  902.000  7.3277e+01
  903.000  7.3640e+01
  904.000  7.4006e+01
  905.000  7.4374e+01
  906.000  7.4745e+01
  907.000  7.5119e+01
  908.000  7.5496e+01
  909.000  7.5876e+01
  910.000  7.6258e+01
  911.000  7.6644e+01
  912.000  7.7032e+01
  913.000  7.7423e+01
  914.000  7.7818e+01
  915.000  7.8215e+01
  916.000  7.8615e+01
  917.000  7.9019e+01
  918.000  7.9425e+01
  919.000  7.9835e+01
  920.000  8.0248e+01
  921.000  8.0664e+01
  922.000  8.1083e+01
  923.000  8.1506e+01
  924.000  8.1931e+01
  925.000  8.2361e+01
  926.000  8.2793e+01
  927.000  8.3229e+01
  928.000  8.3669e+01
  929.000  8.4112e+01
  930.000  8.4558e+01
  931.000  8.5008e+01
  932.000  8.5462e+01
  933.000  8.5919e+01
  934.000  8.6380e+01
  935.000  8.6845e+01
  936.000  8.7313e+01
  937.000  8.7786e+01
  938.000  8.8262e+01
  939.000  8.8742e+01
  940.000  8.9226e+01
  941.000  8.9714e+01
  942.000  9.0205e+01
  943.000  9.0701e+01
  944.000  9.1201e+01
  945.000  9.1706e+01
  946.000  9.2214e+01
  947.000  9.2727e+01
  948.000  9.3244e+01
  949.000  9.3765e+01
  950.000  9.4290e+01
  951.000  9.4820e+01
  952.000  9.5355e+01
  953.000  9.5894e+01
  954.000  9.6438e+01
  955.000  9.6986e+01
  956.000  9.7539e+01
  957.000  9.8097e+01
  958.000  9.8659e+01
  959.000  9.9227e+01
  960.000  9.9799e+01
  961.000  1.0038e+02
  962.000  1.0096e+02
  963.000  1.0155e+02
  964.000  1.0214e+02
  965.000  1.0274e+02
  966.000  1.0334e+02
  967.000  1.0395e+02
  968.000  1.0456e+02
  969.000  1.0518e+02
  970.000  1.0580e+02
  971.000  1.0643e+02
  972.000  1.0707e+02
  973.000  1.0771e+02
  974.000  1.0836e+02
  975.000  1.0901e+02
  976.000  1.0967e+02
  977.000  1.1034e+02
  978.000  1.1101e+02
  979.000  1.1168e+02
  980.000  1.1237e+02
  981.000  1.1306e+02
  982.000  1.1375e+02
  983.000  1.1446e+02
  984.000  1.1517e+02
  985.000  1.1588e+02
  986.000  1.1660e+02
  987.000  1.1733e+02
  988.000  1.1807e+02
  989.000  1.1881e+02
  990.000  1.1956e+02
  991.000  1.2032e+02
  992.000  1.2108e+02
  993.000  1.2186e+02
  994.000  1.2263e+02
  995.000  1.2342e+02
  996.000  1.2422e+02
  997.000  1.2502e+02
  998.000  1.2583e+02
  999.000  1.2664e+02
 1000.000  1.2747e+02
 1001.000  1.2830e+02
 1002.000  1.2915e+02
 1003.000  1.3000e+02
 1004.000  1.3085e+02
 1005.000  1.3172e+02
 1006.000  1.3260e+02
 1007.000  1.3348e+02
 1008.000  1.3438e+02
 1009.000  1.3528e+02
 1010.000  1.3619e+02
 1011.000  1.3711e+02
 1012.000  1.3804e+02
 1013.000  1.3898e+02
 1014.000  1.3993e+02
 1015.000  1.4089e+02
 1016.000  1.4186e+02
 1017.000  1.4283e+02
 1018.000  1.4382e+02
 1019.000  1.4482e+02
 1020.000  1.4583e+02
 1021.000  1.4685e+02
 1022.000  1.4788e+02
 1023.000  1.4893e+02
 1024.000  1.4998e+02
 1025.000  1.5104e+02
 1026.000  1.5212e+02
 1027.000  1.5321e+02
 1028.000  1.5431e+02
 1029.000  1.5542e+02
 1030.000  1.5654e+02
 1031.000  1.5767e+02
 1032.000  1.5882e+02
 1033.000  1.5998e+02
 1034.000  1.6115e+02
 1035.000  1.6234e+02
 1036.000  1.6354e+02
 1037.000  1.6475e+02
 1038.000  1.6598e+02
 1039.000  1.6721e+02
 1040.000  1.6847e+02
 1041.000  1.6973e+02
 1042.000  1.7102e+02
 1043.000  1.7231e+02
 1044.000  1.7362e+02
 1045.000  1.7495e+02
 1046.000  1.7629e+02
 1047.000  1.7765e+02
 1048.000  1.7902e+02
 1049.000  1.8041e+02
 1050.000  1.8181e+02
 1051.000  1.8323e+02
 1052.000  1.8467e+02
 1053.000  1.8613e+02
 1054.000  1.8760e+02
 1055.000  1.8909e+02
 1056.000  1.9060e+02
 1057.000  1.9212e+02
 1058.000  1.9366e+02
 1059.000  1.9523e+02
 1060.000  1.9681e+02
 1061.000  1.9841e+02
 1062.000  2.0003e+02
 1063.000  2.0167e+02
 1064.000  2.0333e+02
 1065.000  2.0501e+02
 1066.000  2.0671e+02
 1067.000  2.0844e+02
 1068.000  2.1018e+02
 1069.000  2.1195e+02
 1070.000  2.1374e+02
 1071.000  2.1555e+02
 1072.000  2.1738e+02
 1073.000  2.1924e+02
 1074.000  2.2113e+02
 1075.000  2.2303e+02
 1076.000  2.2496e+02
 1077.000  2.2692e+02
 1078.000  2.2890e+02
 1079.000  2.3091e+02
 1080.000  2.3295e+02
 1081.000  2.3501e+02
 1082.000  2.3710e+02
 1083.000  2.3922e+02
 1084.000  2.4136e+02
 1085.000  2.4354e+02
 1086.000  2.4574e+02
 1087.000  2.4798e+02
 1088.000  2.5024e+02
 1089.000  2.5254e+02
 1090.000  2.5486e+02
 1091.000  2.5722e+02
 1092.000  2.5962e+02
 1093.000  2.6204e+02
 1094.000  2.6451e+02
 1095.000  2.6700e+02
 1096.000  2.6953e+02
 1097.000  2.7210e+02
 1098.000  2.7470e+02
 1099.000  2.7735e+02
 1100.000  2.8003e+02
 1101.000  2.8274e+02
 1102.000  2.8550e+02
 1103.000  2.8830e+02
 1104.000  2.9114e+02
 1105.000  2.9403e+02
 1106.000  2.9695e+02
 1107.000  2.9992e+02
 1108.000  3.0294e+02
 1109.000  3.0600e+02
 1110.000  3.0910e+02
 1111.000  3.1226e+02
 1112.000  3.1546e+02
 1113.000  3.1871e+02
 1114.000  3.2201e+02
 1115.000  3.2537e+02
 1116.000  3.2877e+02
 1117.000  3.3223e+02
 1118.000  3.3575e+02
 1119.000  3.3932e+02
 1120.000  3.4295e+02
 1121.000  3.4664e+02
 1122.000  3.5038e+02
 1123.000  3.5419e+02
 1124.000  3.5806e+02
 1125.000  3.6199e+02
 1126.000  3.6599e+02
 1127.000  3.7006e+02
 1128.000  3.7419e+02
 1129.000  3.7839e+02
 1130.000  3.8267e+02
 1131.000  3.8702e+02
 1132.000  3.9144e+02
 1133.000  3.9593e+02
 1134.000  4.0051e+02
 1135.000  4.0516e+02
 1136.000  4.0990e+02
 1137.000  4.1472e+02
 1138.000  4.1963e+02
 1139.000  4.2462e+02
 1140.000  4.2970e+02
 1141.000  4.3488e+02
 1142.000  4.4014e+02
 1143.000  4.4551e+02
 1144.000  4.5097e+02
 1145.000  4.5653e+02
 1146.000  4.6220e+02
 1147.000  4.6797e+02
 1148.000  4.7386e+02
 1149.000  4.7985e+02
 1150.000  4.8596e+02
 1151.000  4.9218e+02
 1152.000  4.9853e+02
 1153.000  5.0500e+02
 1154.000  5.1159e+02
 1155.000  5.1831e+02
 1156.000  5.2517e+02
 1157.000  5.3217e+02
 1158.000  5.3930e+02
 1159.000  5.4658e+02
 1160.000  5.5401e+02
 1161.000  5.6159e+02
 1162.000  5.6933e+02
 1163.000  5.7722e+02
 1164.000  5.8528e+02
 1165.000  5.9352e+02
 1166.000  6.0192e+02
 1167.000  6.1051e+02
 1168.000  6.1928e+02
 1169.000  6.2824e+02
 1170.000  6.3740e+02
 1171.000  6.4675e+02
 1172.000  6.5632e+02
 1173.000  6.6610e+02
 1174.000  6.7610e+02
 1175.000  6.8632e+02
 1176.000  6.9678e+02
 1177.000  7.0747e+02
 1178.000  7.1842e+02
 1179.000  7.2962e+02
 1180.000  7.4109e+02
 1181.000  7.5282e+02
 1182.000  7.6484e+02
 1183.000  7.7715e+02
 1184.000  7.8975e+02
 1185.000  8.0266e+02
 1186.000  8.1590e+02
 1187.000  8.2946e+02
 1188.000  8.4336e+02
 1189.000  8.5761e+02
 1190.000  8.7223e+02
 1191.000  8.8722e+02
 1192.000  9.0260e+02
 1193.000  9.1838e+02
 1194.000  9.3458e+02
 1195.000  9.5122e+02
 1196.000  9.6829e+02
 1197.000  9.8584e+02
 1198.000  1.0039e+03
 1199.000  1.0224e+03
 1200.000  1.0414e+03
 1201.000  1.0610e+03
 1202.000  1.0811e+03
 1203.000  1.1018e+03
 1204.000  1.1231e+03
 1205.000  1.1450e+03
 1206.000  1.1676e+03
 1207.000  1.1908e+03
 1208.000  1.2148e+03
 1209.000  1.2394e+03
 1210.000  1.2648e+03
 1211.000  1.2910e+03
 1212.000  1.3181e+03
 1213.000  1.3459e+03
 1214.000  1.3747e+03
 1215.000  1.4044e+03
 1216.000  1.4351e+03
 1217.000  1.4668e+03
 1218.000  1.4995e+03
 1219.000  1.5333e+03
 1220.000  1.5683e+03
 1221.000  1.6045e+03
 1222.000  1.6420e+03
 1223.000  1.6807e+03
 1224.000  1.7209e+03
 1225.000  1.7625e+03
 1226.000  1.8057e+03
 1227.000  1.8504e+03
 1228.000  1.8968e+03
 1229.000  1.9449e+03
 1230.000  1.9949e+03
 1231.000  2.0469e+03
 1232.000  2.1009e+03
 1233.000  2.1570e+03
 1234.000  2.2154e+03
 1235.000  2.2762e+03
 1236.000  2.3395e+03
 1237.000  2.4055e+03
 1238.000  2.4743e+03
 1239.000  2.5461e+03
 1240.000  2.6210e+03
 1241.000  2.6992e+03
 1242.000  2.7810e+03
 1243.000  2.8665e+03
 1244.000  2.9559e+03
 1245.000  3.0496e+03
 1246.000  3.1478e+03
 1247.000  3.2508e+03
 1248.000  3.3588e+03
 1249.000  3.4722e+03
 1250.000  3.5915e+03
 1251.000  3.7169e+03
 1252.000  3.8489e+03
 1253.000  3.9880e+03
 1254.000  4.1347e+03
 1255.000  4.2896e+03
 1256.000  4.4532e+03
