Frequency  Raman intensity
  350.000  2.0049e-10
  351.000  2.0091e-10
  352.000  2.0133e-10
  353.000  2.0176e-10
  354.000  2.0218e-10
  355.000  2.0260e-10
  356.000  2.0303e-10
  357.000  2.0346e-10
  358.000  2.0389e-10
  359.000  2.0432e-10
  360.000  2.0475e-10
  361.000  2.0518e-10
  362.000  2.0562e-10
  363.000  2.0605e-10
  364.000  2.0649e-10
  365.000  2.0693e-10
  366.000  2.0737e-10
  367.000  2.0781e-10
  368.000  2.0825e-10
  369.000  2.0870e-10
  370.000  2.0914e-10
  371.000  2.0959e-10
  372.000  2.1004e-10
  373.000  2.1049e-10
  374.000  2.1094e-10
  375.000  2.1139e-10
  376.000  2.1185e-10
  377.000  2.1230e-10
  378.000  2.1276e-10
  379.000  2.1322e-10
  380.000  2.1368e-10
  381.000  2.1414e-10
  382.000  2.1460e-10
  383.000  2.1507e-10
  384.000  2.1553e-10
  385.000  2.1600e-10
  386.000  2.1647e-10
  387.000  2.1694e-10
  388.000  2.1741e-10
  389.000  2.1789e-10
  390.000  2.1836e-10
  391.000  2.1884e-10
  392.000  2.1932e-10
  393.000  2.1980e-10
  394.000  2.2028e-10
  395.000  2.2076e-10
  396.000  2.2125e-10
  397.000  2.2174e-10
  398.000  2.2222e-10
  399.000  2.2271e-10
  400.000  2.2320e-10
  401.000  2.2370e-10
  402.000  2.2419e-10
  403.000  2.2469e-10
  404.000  2.2519e-10
  405.000  2.2569e-10
  406.000  2.2619e-10
  407.000  2.2669e-10
  408.000  2.2719e-10
  409.000  2.2770e-10
  410.000  2.2821e-10
  411.000  2.2872e-10
  412.000  2.2923e-10
  413.000  2.2974e-10
  414.000  2.3026e-10
  415.000  2.3077e-10
  416.000  2.3129e-10
  417.000  2.3181e-10
  418.000  2.3233e-10
  419.000  2.3286e-10
  420.000  2.3338e-10
  421.000  2.3391e-10
  422.000  2.3444e-10
  423.000  2.3497e-10
  424.000  2.3550e-10
  425.000  2.3604e-10
  426.000  2.3657e-10
  427.000  2.3711e-10
  428.000  2.3765e-10
  429.000  2.3819e-10
  430.000  2.3873e-10
  431.000  2.3928e-10
  432.000  2.3983e-10
  433.000  2.4038e-10
  434.000  2.4093e-10
  435.000  2.4148e-10
  436.000  2.4203e-10
  437.000  2.4259e-10
  438.000  2.4315e-10
  439.000  2.4371e-10
  440.000  2.4427e-10
  441.000  2.4484e-10
  442.000  2.4540e-10
  443.000  2.4597e-10
  444.000  2.4654e-10
  445.000  2.4711e-10
  446.000  2.4769e-10
  447.000  2.4827e-10
  448.000  2.4884e-10
  449.000  2.4942e-10
  450.000  2.5001e-10
  451.000  2.5059e-10
  452.000  2.5118e-10
  453.000  2.5177e-10
  454.000  2.5236e-10
  455.000  2.5295e-10
  456.000  2.5354e-10
  457.000  2.5414e-10
  458.000  2.5474e-10
  459.000  2.5534e-10
  460.000  2.5594e-10
  461.000  2.5655e-10
  462.000  2.5716e-10
  463.000  2.5777e-10
  464.000  2.5838e-10
  465.000  2.5899e-10
  466.000  2.5961e-10
  467.000  2.6023e-10
  468.000  2.6085e-10
  469.000  2.6147e-10
  470.000  2.6209e-10
  471.000  2.6272e-10
  472.000  2.6335e-10
  473.000  2.6398e-10
  474.000  2.6462e-10
  475.000  2.6525e-10
  476.000  2.6589e-10
  477.000  2.6653e-10
  478.000  2.6718e-10
  479.000  2.6782e-10
  480.000  2.6847e-10
  481.000  2.6912e-10
  482.000  2.6977e-10
  483.000  2.7043e-10
  484.000  2.7109e-10
  485.000  2.7175e-10
  486.000  2.7241e-10
  487.000  2.7307e-10
  488.000  2.7374e-10
  489.000  2.7441e-10
  490.000  2.7508e-10
  491.000  2.7576e-10
  492.000  2.7643e-10
  493.000  2.7711e-10
  494.000  2.7780e-10
  495.000  2.7848e-10
  496.000  2.7917e-10
  497.000  2.7986e-10
  498.000  2.8055e-10
  499.000  2.8124e-10
  500.000  2.8194e-10
  501.000  2.8264e-10
  502.000  2.8334e-10
  503.000  2.8405e-10
  504.000  2.8476e-10
  505.000  2.8547e-10
  506.000  2.8618e-10
  507.000  2.8690e-10
  508.000  2.8761e-10
  509.000  2.8834e-10
  510.000  2.8906e-10
  511.000  2.8979e-10
  512.000  2.9052e-10
  513.000  2.9125e-10
  514.000  2.9198e-10
  515.000  2.9272e-10
  516.000  2.9346e-10
  517.000  2.9420e-10
  518.000  2.9495e-10
  519.000  2.9570e-10
  520.000  2.9645e-10
  521.000  2.9721e-10
  522.000  2.9796e-10
  523.000  2.9872e-10
  524.000  2.9949e-10
  525.000  3.0025e-10
  526.000  3.0102e-10
  527.000  3.0179e-10
  528.000  3.0257e-10
  529.000  3.0335e-10
  530.000  3.0413e-10
  531.000  3.0491e-10
  532.000  3.0570e-10
  533.000  3.0649e-10
  534.000  3.0728e-10
  535.000  3.0808e-10
  536.000  3.0888e-10
  537.000  3.0968e-10
  538.000  3.1049e-10
  539.000  3.1130e-10
  540.000  3.1211e-10
  541.000  3.1292e-10
  542.000  3.1374e-10
  543.000  3.1457e-10
  544.000  3.1539e-10
  545.000  3.1622e-10
  546.000  3.1705e-10
  547.000  3.1788e-10
  548.000  3.1872e-10
  549.000  3.1956e-10
  550.000  3.2041e-10
  551.000  3.2126e-10
  552.000  3.2211e-10
  553.000  3.2296e-10
  554.000  3.2382e-10
  555.000  3.2468e-10
  556.000  3.2555e-10
  557.000  3.2642e-10
  558.000  3.2729e-10
  559.000  3.2816e-10
  560.000  3.2904e-10
  561.000  3.2993e-10
  562.000  3.3081e-10
  563.000  3.3170e-10
  564.000  3.3259e-10
  565.000  3.3349e-10
  566.000  3.3439e-10
  567.000  3.3530e-10
  568.000  3.3620e-10
  569.000  3.3712e-10
  570.000  3.3803e-10
  571.000  3.3895e-10
  572.000  3.3987e-10
  573.000  3.4080e-10
  574.000  3.4173e-10
  575.000  3.4266e-10
  576.000  3.4360e-10
  577.000  3.4454e-10
  578.000  3.4549e-10
  579.000  3.4644e-10
  580.000  3.4739e-10
  581.000  3.4835e-10
  582.000  3.4931e-10
  583.000  3.5028e-10
  584.000  3.5125e-10
  585.000  3.5222e-10
  586.000  3.5320e-10
  587.000  3.5418e-10
  588.000  3.5517e-10
  589.000  3.5615e-10
  590.000  3.5715e-10
  591.000  3.5815e-10
  592.000  3.5915e-10
  593.000  3.6016e-10
  594.000  3.6117e-10
  595.000  3.6218e-10
  596.000  3.6320e-10
  597.000  3.6422e-10
  598.000  3.6525e-10
  599.000  3.6628e-10
  600.000  3.6732e-10
  601.000  3.6836e-10
  602.000  3.6941e-10
  603.000  3.7046e-10
  604.000  3.7151e-10
  605.000  3.7257e-10
  606.000  3.7364e-10
  607.000  3.7470e-10
  608.000  3.7578e-10
  609.000  3.7685e-10
  610.000  3.7794e-10
  611.000  3.7902e-10
  612.000  3.8011e-10
  613.000  3.8121e-10
  614.000  3.8231e-10
  615.000  3.8342e-10
  616.000  3.8453e-10
  617.000  3.8564e-10
  618.000  3.8676e-10
  619.000  3.8789e-10
  620.000  3.8902e-10
  621.000  3.9015e-10
  622.000  3.9129e-10
  623.000  3.9243e-10
  624.000  3.9358e-10
  625.000  3.9474e-10
  626.000  3.9590e-10
  627.000  3.9706e-10
  628.000  3.9823e-10
  629.000  3.9941e-10
  630.000  4.0059e-10
  631.000  4.0178e-10
  632.000  4.0297e-10
  633.000  4.0416e-10
  634.000  4.0537e-10
  635.000  4.0657e-10
  636.000  4.0778e-10
  637.000  4.0900e-10
  638.000  4.1023e-10
  639.000  4.1145e-10
  640.000  4.1269e-10
  641.000  4.1393e-10
  642.000  4.1517e-10
  643.000  4.1643e-10
  644.000  4.1768e-10
  645.000  4.1895e-10
  646.000  4.2021e-10
  647.000  4.2149e-10
  648.000  4.2277e-10
  649.000  4.2405e-10
  650.000  4.2534e-10
  651.000  4.2664e-10
  652.000  4.2795e-10
  653.000  4.2926e-10
  654.000  4.3057e-10
  655.000  4.3189e-10
  656.000  4.3322e-10
  657.000  4.3455e-10
  658.000  4.3589e-10
  659.000  4.3724e-10
  660.000  4.3859e-10
  661.000  4.3995e-10
  662.000  4.4131e-10
  663.000  4.4269e-10
  664.000  4.4406e-10
  665.000  4.4545e-10
  666.000  4.4684e-10
  667.000  4.4824e-10
  668.000  4.4964e-10
  669.000  4.5105e-10
  670.000  4.5247e-10
  671.000  4.5389e-10
  672.000  4.5532e-10
  673.000  4.5676e-10
  674.000  4.5820e-10
  675.000  4.5965e-10
  676.000  4.6111e-10
  677.000  4.6257e-10
  678.000  4.6405e-10
  679.000  4.6553e-10
  680.000  4.6701e-10
  681.000  4.6850e-10
  682.000  4.7000e-10
  683.000  4.7151e-10
  684.000  4.7303e-10
  685.000  4.7455e-10
  686.000  4.7608e-10
  687.000  4.7761e-10
  688.000  4.7916e-10
  689.000  4.8071e-10
  690.000  4.8227e-10
  691.000  4.8383e-10
  692.000  4.8541e-10
  693.000  4.8699e-10
  694.000  4.8858e-10
  695.000  4.9018e-10
  696.000  4.9178e-10
  697.000  4.9340e-10
  698.000  4.9502e-10
  699.000  4.9665e-10
  700.000  4.9828e-10
  701.000  4.9993e-10
  702.000  5.0158e-10
  703.000  5.0325e-10
  704.000  5.0492e-10
  705.000  5.0659e-10
  706.000  5.0828e-10
  707.000  5.0998e-10
  708.000  5.1168e-10
  709.000  5.1339e-10
  710.000  5.1511e-10
  711.000  5.1684e-10
  712.000  5.1858e-10
  713.000  5.2033e-10
  714.000  5.2208e-10
  715.000  5.2385e-10
  716.000  5.2562e-10
  717.000  5.2740e-10
  718.000  5.2920e-10
  719.000  5.3100e-10
  720.000  5.3281e-10
  721.000  5.3463e-10
  722.000  5.3646e-10
  723.000  5.3829e-10
  724.000  5.4014e-10
  725.000  5.4200e-10
  726.000  5.4387e-10
  727.000  5.4574e-10
  728.000  5.4763e-10
  729.000  5.4952e-10
  730.000  5.5143e-10
  731.000  5.5335e-10
  732.000  5.5527e-10
  733.000  5.5721e-10
  734.000  5.5915e-10
  735.000  5.6111e-10
  736.000  5.6308e-10
  737.000  5.6505e-10
  738.000  5.6704e-10
  739.000  5.6904e-10
  740.000  5.7105e-10
  741.000  5.7307e-10
  742.000  5.7510e-10
  743.000  5.7714e-10
  744.000  5.7919e-10
  745.000  5.8125e-10
  746.000  5.8332e-10
  747.000  5.8541e-10
  748.000  5.8750e-10
  749.000  5.8961e-10
  750.000  5.9173e-10
  751.000  5.9386e-10
  752.000  5.9600e-10
  753.000  5.9815e-10
  754.000  6.0032e-10
  755.000  6.0249e-10
  756.000  6.0468e-10
  757.000  6.0688e-10
  758.000  6.0909e-10
  759.000  6.1132e-10
  760.000  6.1356e-10
  761.000  6.1580e-10
  762.000  6.1807e-10
  763.000  6.2034e-10
  764.000  6.2262e-10
  765.000  6.2492e-10
  766.000  6.2724e-10
  767.000  6.2956e-10
  768.000  6.3190e-10
  769.000  6.3425e-10
  770.000  6.3661e-10
  771.000  6.3899e-10
  772.000  6.4138e-10
  773.000  6.4378e-10
  774.000  6.4620e-10
  775.000  6.4863e-10
  776.000  6.5107e-10
  777.000  6.5353e-10
  778.000  6.5600e-10
  779.000  6.5849e-10
  780.000  6.6099e-10
  781.000  6.6351e-10
  782.000  6.6604e-10
  783.000  6.6858e-10
  784.000  6.7114e-10
  785.000  6.7371e-10
  786.000  6.7630e-10
  787.000  6.7890e-10
  788.000  6.8152e-10
  789.000  6.8415e-10
  790.000  6.8680e-10
  791.000  6.8946e-10
  792.000  6.9214e-10
  793.000  6.9484e-10
  794.000  6.9755e-10
  795.000  7.0027e-10
  796.000  7.0302e-10
  797.000  7.0578e-10
  798.000  7.0855e-10
  799.000  7.1134e-10
  800.000  7.1415e-10
  801.000  7.1697e-10
  802.000  7.1981e-10
  803.000  7.2267e-10
  804.000  7.2555e-10
  805.000  7.2844e-10
  806.000  7.3135e-10
  807.000  7.3428e-10
  808.000  7.3722e-10
  809.000  7.4018e-10
  810.000  7.4317e-10
  811.000  7.4616e-10
  812.000  7.4918e-10
  813.000  7.5222e-10
  814.000  7.5527e-10
  815.000  7.5834e-10
  816.000  7.6143e-10
  817.000  7.6454e-10
  818.000  7.6767e-10
  819.000  7.7082e-10
  820.000  7.7399e-10
  821.000  7.7717e-10
  822.000  7.8038e-10
  823.000  7.8361e-10
  824.000  7.8685e-10
  825.000  7.9012e-10
  826.000  7.9341e-10
  827.000  7.9672e-10
  828.000  8.0004e-10
  829.000  8.0339e-10
  830.000  8.0676e-10
  831.000  8.1016e-10
  832.000  8.1357e-10
  833.000  8.1700e-10
  834.000  8.2046e-10
  835.000  8.2394e-10
  836.000  8.2744e-10
  837.000  8.3096e-10
  838.000  8.3451e-10
  839.000  8.3808e-10
  840.000  8.4167e-10
  841.000  8.4528e-10
  842.000  8.4892e-10
  843.000  8.5258e-10
  844.000  8.5627e-10
  845.000  8.5998e-10
  846.000  8.6371e-10
  847.000  8.6747e-10
  848.000  8.7125e-10
  849.000  8.7506e-10
  850.000  8.7889e-10
  851.000  8.8275e-10
  852.000  8.8663e-10
  853.000  8.9054e-10
  854.000  8.9447e-10
  855.000  8.9843e-10
  856.000  9.0242e-10
  857.000  9.0643e-10
  858.000  9.1047e-10
  859.000  9.1454e-10
  860.000  9.1863e-10
  861.000  9.2276e-10
  862.000  9.2691e-10
  863.000  9.3108e-10
  864.000  9.3529e-10
  865.000  9.3952e-10
  866.000  9.4379e-10
  867.000  9.4808e-10
  868.000  9.5240e-10
  869.000  9.5675e-10
  870.000  9.6114e-10
  871.000  9.6555e-10
  872.000  9.6999e-10
  873.000  9.7446e-10
  874.000  9.7897e-10
  875.000  9.8350e-10
  876.000  9.8807e-10
  877.000  9.9267e-10
  878.000  9.9730e-10
  879.000  1.0020e-09
  880.000  1.0067e-09
  881.000  1.0114e-09
  882.000  1.0161e-09
  883.000  1.0209e-09
  884.000  1.0258e-09
  885.000  1.0306e-09
  886.000  1.0355e-09
  887.000  1.0405e-09
  888.000  1.0454e-09
  889.000  1.0504e-09
  890.000  1.0555e-09
  891.000  1.0606e-09
  892.000  1.0657e-09
  893.000  1.0708e-09
  894.000  1.0760e-09
  895.000  1.0812e-09
  896.000  1.0865e-09
  897.000  1.0918e-09
  898.000  1.0972e-09
  899.000  1.1025e-09
  900.000  1.1080e-09
  901.000  1.1134e-09
  902.000  1.1189e-09
  903.000  1.1245e-09
  904.000  1.1301e-09
  905.000  1.1357e-09
  906.000  1.1413e-09
  907.000  1.1471e-09
  908.000  1.1528e-09
  909.000  1.1586e-09
  910.000  1.1644e-09
  911.000  1.1703e-09
  912.000  1.1763e-09
  913.000  1.1822e-09
  914.000  1.1883e-09
  915.000  1.1943e-09
  916.000  1.2004e-09
  917.000  1.2066e-09
  918.000  1.2128e-09
  919.000  1.2191e-09
  920.000  1.2254e-09
  921.000  1.2317e-09
  922.000  1.2381e-09
  923.000  1.2446e-09
  924.000  1.2511e-09
  925.000  1.2576e-09
  926.000  1.2642e-09
  927.000  1.2709e-09
  928.000  1.2776e-09
  929.000  1.2844e-09
  930.000  1.2912e-09
  931.000  1.2981e-09
  932.000  1.3050e-09
  933.000  1.3120e-09
  934.000  1.3190e-09
  935.000  1.3261e-09
  936.000  1.3333e-09
  937.000  1.3405e-09
  938.000  1.3477e-09
  939.000  1.3551e-09
  940.000  1.3625e-09
  941.000  1.3699e-09
  942.000  1.3774e-09
  943.000  1.3850e-09
  944.000  1.3926e-09
  945.000  1.4003e-09
  946.000  1.4081e-09
  947.000  1.4159e-09
  948.000  1.4238e-09
  949.000  1.4318e-09
  950.000  1.4398e-09
  951.000  1.4479e-09
  952.000  1.4560e-09
  953.000  1.4643e-09
  954.000  1.4726e-09
  955.000  1.4810e-09
  956.000  1.4894e-09
  957.000  1.4979e-09
  958.000  1.5065e-09
  959.000  1.5152e-09
  960.000  1.5239e-09
  961.000  1.5327e-09
  962.000  1.5416e-09
  963.000  1.5506e-09
  964.000  1.5596e-09
  965.000  1.5687e-09
  966.000  1.5780e-09
  967.000  1.5872e-09
  968.000  1.5966e-09
  969.000  1.6061e-09
  970.000  1.6156e-09
  971.000  1.6252e-09
  972.000  1.6349e-09
  973.000  1.6447e-09
  974.000  1.6546e-09
  975.000  1.6646e-09
  976.000  1.6747e-09
  977.000  1.6848e-09
  978.000  1.6951e-09
  979.000  1.7054e-09
  980.000  1.7158e-09
  981.000  1.7264e-09
  982.000  1.7370e-09
  983.000  1.7477e-09
  984.000  1.7586e-09
  985.000  1.7695e-09
  986.000  1.7805e-09
  987.000  1.7917e-09
  988.000  1.8029e-09
  989.000  1.8142e-09
  990.000  1.8257e-09
  991.000  1.8373e-09
  992.000  1.8489e-09
  993.000  1.8607e-09
  994.000  1.8726e-09
  995.000  1.8846e-09
  996.000  1.8967e-09
  997.000  1.9090e-09
  998.000  1.9213e-09
  999.000  1.9338e-09
 1000.000  1.9464e-09
 1001.000  1.9592e-09
 1002.000  1.9720e-09
 1003.000  1.9850e-09
 1004.000  1.9981e-09
 1005.000  2.0114e-09
 1006.000  2.0247e-09
 1007.000  2.0382e-09
 1008.000  2.0519e-09
 1009.000  2.0657e-09
 1010.000  2.0796e-09
 1011.000  2.0936e-09
 1012.000  2.1078e-09
 1013.000  2.1222e-09
 1014.000  2.1367e-09
 1015.000  2.1513e-09
 1016.000  2.1661e-09
 1017.000  2.1811e-09
 1018.000  2.1962e-09
 1019.000  2.2114e-09
 1020.000  2.2268e-09
 1021.000  2.2424e-09
 1022.000  2.2582e-09
 1023.000  2.2741e-09
 1024.000  2.2901e-09
 1025.000  2.3064e-09
 1026.000  2.3228e-09
 1027.000  2.3394e-09
 1028.000  2.3562e-09
 1029.000  2.3732e-09
 1030.000  2.3903e-09
 1031.000  2.4076e-09
 1032.000  2.4252e-09
 1033.000  2.4429e-09
 1034.000  2.4608e-09
 1035.000  2.4789e-09
 1036.000  2.4972e-09
 1037.000  2.5157e-09
 1038.000  2.5344e-09
 1039.000  2.5533e-09
 1040.000  2.5725e-09
 1041.000  2.5918e-09
 1042.000  2.6114e-09
 1043.000  2.6312e-09
 1044.000  2.6512e-09
 1045.000  2.6714e-09
 1046.000  2.6919e-09
 1047.000  2.7126e-09
 1048.000  2.7336e-09
 1049.000  2.7548e-09
 1050.000  2.7762e-09
 1051.000  2.7979e-09
 1052.000  2.8199e-09
 1053.000  2.8421e-09
 1054.000  2.8646e-09
 1055.000  2.8873e-09
 1056.000  2.9103e-09
 1057.000  2.9336e-09
 1058.000  2.9572e-09
 1059.000  2.9811e-09
 1060.000  3.0052e-09
 1061.000  3.0297e-09
 1062.000  3.0544e-09
 1063.000  3.0794e-09
 1064.000  3.1048e-09
 1065.000  3.1305e-09
 1066.000  3.1565e-09
 1067.000  3.1828e-09
 1068.000  3.2094e-09
 1069.000  3.2364e-09
 1070.000  3.2637e-09
 1071.000  3.2914e-09
 1072.000  3.3194e-09
 1073.000  3.3478e-09
 1074.000  3.3765e-09
 1075.000  3.4056e-09
 1076.000  3.4351e-09
 1077.000  3.4650e-09
 1078.000  3.4953e-09
 1079.000  3.5260e-09
 1080.000  3.5570e-09
 1081.000  3.5885e-09
 1082.000  3.6204e-09
 1083.000  3.6528e-09
 1084.000  3.6855e-09
 1085.000  3.7187e-09
 1086.000  3.7524e-09
 1087.000  3.7865e-09
 1088.000  3.8211e-09
 1089.000  3.8562e-09
 1090.000  3.8917e-09
 1091.000  3.9278e-09
 1092.000  3.9643e-09
 1093.000  4.0014e-09
 1094.000  4.0389e-09
 1095.000  4.0770e-09
 1096.000  4.1157e-09
 1097.000  4.1549e-09
 1098.000  4.1947e-09
 1099.000  4.2350e-09
 1100.000  4.2759e-09
 1101.000  4.3174e-09
 1102.000  4.3596e-09
 1103.000  4.4023e-09
 1104.000  4.4457e-09
 1105.000  4.4897e-09
 1106.000  4.5344e-09
 1107.000  4.5797e-09
 1108.000  4.6257e-09
 1109.000  4.6725e-09
 1110.000  4.7199e-09
 1111.000  4.7681e-09
 1112.000  4.8170e-09
 1113.000  4.8666e-09
 1114.000  4.9171e-09
 1115.000  4.9683e-09
 1116.000  5.0203e-09
 1117.000  5.0731e-09
 1118.000  5.1268e-09
 1119.000  5.1813e-09
 1120.000  5.2367e-09
 1121.000  5.2930e-09
 1122.000  5.3502e-09
 1123.000  5.4084e-09
 1124.000  5.4675e-09
 1125.000  5.5276e-09
 1126.000  5.5886e-09
 1127.000  5.6507e-09
 1128.000  5.7138e-09
 1129.000  5.7780e-09
 1130.000  5.8433e-09
 1131.000  5.9096e-09
 1132.000  5.9771e-09
 1133.000  6.0458e-09
 1134.000  6.1157e-09
 1135.000  6.1868e-09
 1136.000  6.2591e-09
 1137.000  6.3327e-09
 1138.000  6.4076e-09
 1139.000  6.4838e-09
 1140.000  6.5614e-09
 1141.000  6.6404e-09
 1142.000  6.7209e-09
 1143.000  6.8028e-09
 1144.000  6.8862e-09
 1145.000  6.9712e-09
 1146.000  7.0577e-09
 1147.000  7.1459e-09
 1148.000  7.2357e-09
 1149.000  7.3272e-09
 1150.000  7.4204e-09
 1151.000  7.5155e-09
 1152.000  7.6124e-09
 1153.000  7.7111e-09
 1154.000  7.8118e-09
 1155.000  7.9145e-09
 1156.000  8.0193e-09
 1157.000  8.1261e-09
 1158.000  8.2350e-09
 1159.000  8.3462e-09
 1160.000  8.4596e-09
 1161.000  8.5753e-09
 1162.000  8.6935e-09
 1163.000  8.8140e-09
 1164.000  8.9371e-09
 1165.000  9.0628e-09
 1166.000  9.1912e-09
 1167.000  9.3223e-09
 1168.000  9.4562e-09
 1169.000  9.5931e-09
 1170.000  9.7329e-09
 1171.000  9.8758e-09
 1172.000  1.0022e-08
 1173.000  1.0171e-08
 1174.000  1.0324e-08
 1175.000  1.0480e-08
 1176.000  1.0640e-08
 1177.000  1.0803e-08
 1178.000  1.0970e-08
 1179.000  1.1141e-08
 1180.000  1.1316e-08
 1181.000  1.1495e-08
 1182.000  1.1679e-08
 1183.000  1.1867e-08
 1184.000  1.2059e-08
 1185.000  1.2256e-08
 1186.000  1.2459e-08
 1187.000  1.2666e-08
 1188.000  1.2878e-08
 1189.000  1.3095e-08
 1190.000  1.3319e-08
 1191.000  1.3548e-08
 1192.000  1.3782e-08
 1193.000  1.4023e-08
 1194.000  1.4271e-08
 1195.000  1.4525e-08
 1196.000  1.4786e-08
 1197.000  1.5053e-08
 1198.000  1.5329e-08
 1199.000  1.5611e-08
 1200.000  1.5902e-08
 1201.000  1.6201e-08
 1202.000  1.6508e-08
 1203.000  1.6824e-08
 1204.000  1.7149e-08
 1205.000  1.7484e-08
 1206.000  1.7829e-08
 1207.000  1.8183e-08
 1208.000  1.8549e-08
 1209.000  1.8926e-08
 1210.000  1.9314e-08
 1211.000  1.9714e-08
 1212.000  2.0126e-08
 1213.000  2.0552e-08
 1214.000  2.0991e-08
 1215.000  2.1445e-08
 1216.000  2.1913e-08
 1217.000  2.2397e-08
 1218.000  2.2897e-08
 1219.000  2.3413e-08
 1220.000  2.3948e-08
 1221.000  2.4500e-08
 1222.000  2.5072e-08
 1223.000  2.5665e-08
 1224.000  2.6278e-08
 1225.000  2.6913e-08
 1226.000  2.7572e-08
 1227.000  2.8255e-08
 1228.000  2.8963e-08
 1229.000  2.9699e-08
 1230.000  3.0462e-08
 1231.000  3.1255e-08
 1232.000  3.2080e-08
 1233.000  3.2937e-08
 1234.000  3.3829e-08
 1235.000  3.4757e-08
 1236.000  3.5724e-08
 1237.000  3.6732e-08
 1238.000  3.7782e-08
 1239.000  3.8878e-08
 1240.000  4.0022e-08
 1241.000  4.1216e-08
 1242.000  4.2465e-08
 1243.000  4.3770e-08
 1244.000  4.5137e-08
 1245.000  4.6567e-08
 1246.000  4.8066e-08
 1247.000  4.9638e-08
 1248.000  5.1288e-08
 1249.000  5.3020e-08
 1250.000  5.4841e-08
 1251.000  5.6756e-08
 1252.000  5.8772e-08
 1253.000  6.0896e-08
 1254.000  6.3137e-08
 1255.000  6.5501e-08
 1256.000  6.7999e-08
